# ARRAY dimension (=1)
# MATRIX dimensions (always 2 columns)
# Pressure[Pa] VMR[absolute number]
1
121  2
      1013.2500e+02              1.9853800e-09
      899.05700e+02	         1.1889500e-09
      795.19900e+02	         7.1200700e-10
      701.37200e+02	         4.2638800e-10
      616.76500e+02	         2.5534400e-10
      540.67000e+02	         1.5291300e-10
      472.27600e+02	         9.1572500e-11
      411.17700e+02	         5.4838500e-11
      356.56300e+02	         3.2840200e-11
      308.02800e+02	         1.9666400e-11
      265.06600e+02	         1.1777300e-11
      227.06900e+02	         7.0528800e-12
      194.03700e+02	         4.2236500e-12
      165.86900e+02	         2.5293600e-12
      141.75400e+02	         1.5147200e-12
      121.08300e+02	         9.0709700e-13
      103.55400e+02	         5.4322000e-13
      88.517500e+02	         3.2531000e-13
      75.669500e+02	         3.0812000e-13
      64.685900e+02	         2.9397000e-13
      55.303200e+02	         3.6964000e-13
      47.298500e+02	         4.7208000e-13
      40.479300e+02	         5.8142000e-13
      34.683500e+02	         6.0028000e-13
      29.728800e+02	         6.1711000e-13
      25.493400e+02	         6.3206000e-13
      21.896300e+02	         7.9410900e-13
      18.816100e+02	         1.4097000e-12
      16.171500e+02	         2.3173000e-12
      13.911900e+02	         3.5638000e-12
      11.976600e+02	         3.8353000e-12
      10.193300e+02	         3.7628000e-12
      8.6825400e+02	         3.7012000e-12
      7.4970400e+02	         3.6486000e-12
      6.5638300e+02	         4.4023000e-12
      5.7471500e+02	         5.8522900e-12
      5.0459900e+02	         7.4887000e-12
      4.4299300e+02	         9.2710100e-12
      3.8564300e+02	         1.2624000e-11
      3.3275100e+02	         1.7076000e-11
      2.8715500e+02	         2.2181000e-11
      2.5148900e+02	         2.7821000e-11
      2.2017900e+02	         3.3850000e-11
      1.9312500e+02	         4.0117000e-11
      1.6971900e+02	         5.0471000e-11
      1.4915000e+02	         6.4282000e-11
      1.3162100e+02	         7.9260000e-11
      1.1611800e+02	         9.5023000e-11
      1.0244000e+02	         1.1118000e-10
     0.90412300e+02	         1.2738000e-10
     0.79803600e+02	         1.4330000e-10
     0.70360100e+02	         1.5865000e-10
     0.62031200e+02	         1.7543000e-10
     0.54685100e+02	         1.9372000e-10
     0.48220600e+02	         2.1361000e-10
     0.42505800e+02	         2.3518000e-10
     0.37226800e+02	         2.5849000e-10
     0.32606400e+02	         2.8359000e-10
     0.28553400e+02	         3.1052000e-10
     0.25007000e+02	         3.3929000e-10
     0.21906500e+02	         3.6984000e-10
     0.19049100e+02	         4.0211000e-10
     0.16566600e+02	         4.3595000e-10
     0.14408400e+02	         4.7114000e-10
     0.12533900e+02	         5.0736000e-10
     0.10902600e+02	         5.4418000e-10
    0.094100500e+02	         5.8104000e-10
    0.081212000e+02	         6.1717000e-10
    0.070096600e+02	         6.5161000e-10
    0.060501200e+02	         6.8313000e-10
    0.052212800e+02	         7.1019000e-10
    0.044694500e+02	         7.3087000e-10
    0.038260300e+02	         7.4279100e-10
    0.032758400e+02	         7.4303000e-10
    0.028046800e+02	         7.2803100e-10
    0.024003900e+02	         6.9345000e-10
    0.020346100e+02	         6.3403000e-10
    0.017245500e+02	         5.4340000e-10
    0.014621200e+02	         4.1394000e-10
    0.012392000e+02	         2.3646000e-10
    0.010507400e+02	         1.3507600e-10
   0.0088497300e+02	         7.7161400e-11
   0.0074565100e+02	         4.4077900e-11
   0.0062831600e+02	         2.5179200e-11
   0.0052942300e+02	         1.4383400e-11
   0.0044613400e+02	         8.2164500e-12
   0.0037368700e+02	         4.6935900e-12
   0.0031309400e+02	         2.6811800e-12
   0.0026222900e+02	         1.5316100e-12
   0.0021967300e+02	         8.7491900e-13
   0.0018400600e+02	         4.9979200e-13
   0.0015421700e+02	         2.8550300e-13
   0.0012918900e+02	         1.6309100e-13
   0.0010831600e+02	         9.3164800e-14
  0.00090726400e+02	         5.3219800e-14
  0.00076014000e+02	         3.0401400e-14
  0.00063946200e+02	         1.7366600e-14
  0.00053783300e+02	         9.9205600e-15
  0.00045241600e+02	         5.6670500e-15
  0.00038057700e+02	         3.2372600e-15
  0.00032008600e+02	         1.8492600e-15
  0.00027317200e+02	         1.0563800e-15
  0.00023325000e+02	         6.0345000e-16
  0.00019910400e+02	         3.4471600e-16
  0.00016992200e+02	         1.9691700e-16
  0.00014499600e+02	         1.1248700e-16
  0.00012574400e+02	         6.4257700e-17
  0.00010902600e+02	         3.6706800e-17
  9.4495700e-03	         2.0968500e-17
  8.1921300e-03	         1.1978100e-17
  7.1018700e-03	         6.8424100e-18
  6.3348400e-03	         3.9086800e-18
  5.6509000e-03	         2.2328100e-18
  5.0409200e-03	         1.2754800e-18
  4.4968000e-03	         7.2860700e-19
  4.0114600e-03	         4.1621100e-19
  3.6608700e-03	         2.3775800e-19
  3.3417000e-03	         1.3581800e-19
  3.0498800e-03	         7.7584900e-20
  2.7834000e-03	         4.4319800e-20
  2.5402200e-03	         2.5317400e-20
